31.03.2023	14:50
Amplitude: 2.00 V
Freq  (Hz) 	 Gain (Linear)  	 Phase (deg)
1000.054              0.008              8.958
1059.286              0.008              9.467
1122.057              0.008             10.030
1188.554              0.008             10.611
1258.962              0.008             11.217
1333.468              0.008             11.853
1412.630              0.008             12.531
1496.263              0.008             13.244
1584.925              0.009             13.996
1678.802              0.009             14.783
1778.267              0.009             15.607
1883.693              0.009             16.478
1995.265              0.009             17.391
2113.543              0.009             18.339
2238.713              0.009             19.332
2371.334              0.009             20.356
2511.963              0.009             21.446
2660.789              0.009             22.576
2818.368              0.009             23.748
2985.448              0.009             24.945
3162.213              0.009             26.201
3349.595              0.009             27.480
3548.153              0.010             28.821
3758.445              0.010             30.176
3981.031              0.010             31.573
4217.029              0.010             32.985
4466.809              0.010             34.431
4731.491              0.011             35.911
5011.819              0.011             37.397
5308.911              0.011             38.891
5623.326              0.011             40.378
5956.553              0.012             41.882
6309.524              0.012             43.378
6683.357              0.012             44.850
7079.542              0.013             46.320
7499.009              0.013             47.758
7943.250              0.014             49.176
8413.941              0.014             50.561
8912.571              0.015             51.912
9440.631              0.016             53.219
9999.983              0.016             54.478
10592.490              0.017             55.703
11220.202              0.018             56.864
11884.980              0.019             57.971
12589.246              0.020             59.014
13335.235              0.021             59.995
14125.369              0.022             60.924
14962.442              0.024             61.774
15848.875              0.025             62.558
16788.021              0.027             63.263
17782.860              0.029             63.887
18836.558              0.031             64.418
19952.655              0.033             64.858
21134.876              0.036             65.185
22387.132              0.039             65.386
23713.708              0.042             65.451
25118.887              0.046             65.987
26607.327              0.051             65.752
28183.870              0.057             65.268
29853.918              0.064             64.478
31622.685              0.073             63.257
33496.507              0.084             61.430
35481.341              0.099             58.681
37583.709              0.120             54.466
39810.687              0.150             47.686
42169.727              0.194             36.160
44668.280              0.247             16.554
47315.098              0.271            -10.882
50118.752              0.238            -35.942
53088.367              0.189            -52.901
56234.188              0.150            -63.354
59566.274              0.121            -69.993
63095.801              0.100            -74.411
66834.316              0.085            -77.491
70794.486              0.073            -79.726
74989.349              0.064            -81.389
79432.875              0.057            -82.670
84139.593              0.051            -83.676
89125.149              0.046            -86.164
94406.120              0.042            -86.942
100000.016              0.038            -87.656
105925.463              0.035            -88.177
112201.832              0.032            -88.686
118850.172              0.029            -89.145
125892.460              0.027            -89.566
133352.168              0.025            -89.949
141253.695              0.023            -90.315
149623.491              0.022            -90.661
158489.309              0.020            -90.992
167880.394              0.019            -91.313
177827.850              0.017            -91.633
188364.834              0.016            -91.957
199526.176              0.015            -92.269
