31.03.2023	14:53
Amplitude: 2.00 V
Freq  (Hz) 	 Gain (Linear)  	 Phase (deg)
8999.929              0.015             52.099
9209.663              0.015             52.624
9424.239              0.016             53.144
9643.659              0.016             53.657
9868.294              0.016             54.157
10098.144              0.017             54.655
10333.396              0.017             55.150
10574.050              0.017             55.624
10820.292              0.018             56.099
11072.494              0.018             56.565
11330.284              0.018             57.016
11594.221              0.019             57.463
11864.305              0.019             57.898
12140.721              0.019             58.325
12423.471              0.020             58.746
12712.926              0.020             59.153
13008.900              0.021             59.556
13311.952              0.021             59.943
13622.083              0.022             60.313
13939.291              0.022             60.686
14263.950              0.023             61.040
14596.246              0.023             61.387
14936.365              0.024             61.721
15284.121              0.024             62.040
15640.259              0.025             62.353
16004.592              0.026             62.645
16377.307              0.026             62.936
16758.777              0.027             63.207
17149.188              0.028             63.475
17548.539              0.028             63.719
17957.389              0.029             63.955
18375.553              0.030             64.169
18803.589              0.031             64.377
19241.683              0.032             64.565
19689.836              0.033             64.739
20148.419              0.034             64.891
20617.805              0.035             65.022
21097.995              0.036             65.146
21589.547              0.037             65.243
22092.462              0.038             65.330
22606.924              0.039             65.383
23133.494              0.041             65.415
23672.357              0.042             65.419
24223.886              0.044             65.401
24788.082              0.045             65.354
25365.502              0.047             65.943
25956.333              0.049             65.858
26560.947              0.051             65.741
27179.532              0.053             65.585
27812.645              0.055             65.389
28460.473              0.058             65.145
29123.388              0.061             64.836
29801.764              0.064             64.484
30495.971              0.067             64.058
31206.384              0.070             63.559
31933.188              0.074             62.967
32676.943              0.079             62.276
33438.206              0.084             61.460
34216.978              0.089             60.510
35014.004              0.095             59.385
35829.656              0.102             58.055
36664.307              0.110             56.474
37518.330              0.119             54.585
38392.097              0.130             52.301
39286.353              0.142             49.524
40201.470              0.157             46.102
41138.008              0.173             41.861
42096.153              0.193             36.567
43076.649              0.214             29.958
44080.056              0.235             21.926
45106.933              0.255             12.205
46157.464              0.268              1.279
47232.583              0.271            -10.100
48332.848              0.263            -21.063
49458.630              0.248            -30.927
50610.676              0.229            -39.532
51789.545              0.209            -46.627
52995.980              0.190            -52.497
54230.355              0.173            -57.336
55493.601              0.158            -61.342
56786.090              0.144            -64.673
58108.941              0.132            -67.455
59462.339              0.122            -69.808
60847.402              0.112            -71.805
62264.875              0.104            -73.519
63715.130              0.097            -74.990
65199.286              0.091            -76.277
66717.900              0.085            -77.401
68271.905              0.080            -78.386
69862.232              0.076            -79.257
71489.625              0.072            -80.031
73154.829              0.068            -80.714
74858.777              0.064            -81.341
76602.399              0.061            -81.897
78386.813              0.058            -82.396
80212.578              0.056            -82.851
82080.998              0.053            -83.276
83992.817              0.051            -83.645
85949.339              0.049            -83.987
87951.310              0.047            -84.302
90000.033              0.045            -86.310
92096.440              0.043            -86.624
94241.649              0.042            -86.929
96436.776              0.040            -87.207
98683.126              0.039            -87.474
100981.630              0.037            -87.715
103333.779              0.036            -87.949
105740.689              0.035            -88.170
108203.851              0.034            -88.364
110724.196              0.032            -88.551
113303.214              0.031            -88.779
115942.396              0.030            -88.966
118643.045              0.029            -89.145
121406.652              0.028            -89.313
124234.520              0.028            -89.485
127128.325              0.027            -89.652
130089.559              0.026            -89.807
133119.710              0.025            -89.958
136220.455              0.024            -90.105
139393.471              0.024            -90.249
142640.434              0.023            -90.395
145962.834              0.022            -90.530
149362.907              0.022            -90.672
152841.955              0.021            -90.801
156402.029              0.020            -90.938
160045.177              0.020            -91.074
163773.075              0.019            -91.207
167587.772              0.019            -91.336
171491.504              0.018            -91.465
175485.946              0.018            -91.589
179573.521              0.017            -91.710
183756.463              0.017            -91.850
188036.636              0.016            -91.964
192416.646              0.016            -92.096
196898.542              0.015            -92.216
