03.03.2023	15:42
Amplitude: 2.00 V
Freq  (Hz) 	 Gain (Linear)  	 Phase (deg)
499.934              0.978            -10.437
511.669              0.977            -10.685
523.590              0.976            -10.935
535.697              0.975            -11.177
548.176              0.974            -11.430
561.029              0.973            -11.692
574.067              0.972            -11.949
587.478              0.971            -12.221
601.076              0.970            -12.493
615.045              0.969            -12.773
629.388              0.968            -13.055
644.103              0.966            -13.349
659.190              0.965            -13.651
674.464              0.964            -13.951
690.110              0.962            -14.258
706.315              0.961            -14.574
722.706              0.959            -14.894
739.470              0.958            -15.223
756.793              0.956            -15.554
774.488              0.955            -15.895
792.369              0.953            -16.247
810.996              0.951            -16.602
829.808              0.949            -16.957
849.180              0.947            -17.330
868.924              0.945            -17.697
889.227              0.943            -18.081
909.902              0.941            -18.471
931.136              0.938            -18.871
952.743              0.936            -19.265
974.908              0.933            -19.671
997.633              0.931            -20.085
1020.916              0.928            -20.516
1044.571              0.925            -20.943
1068.972              0.922            -21.377
1093.931              0.920            -21.822
1119.450              0.916            -22.275
1145.527              0.913            -22.736
1172.163              0.910            -23.203
1199.357              0.907            -23.675
1227.297              0.903            -24.151
1255.982              0.899            -24.647
1285.225              0.896            -25.143
1315.214              0.892            -25.641
1345.761              0.888            -26.147
1377.054              0.884            -26.662
1409.277              0.879            -27.185
1442.060              0.875            -27.713
1475.587              0.871            -28.250
1510.046              0.866            -28.791
1545.064              0.861            -29.337
1581.199              0.856            -29.894
1617.894              0.851            -30.454
1655.705              0.846            -31.026
1694.262              0.841            -31.594
1733.750              0.835            -32.166
1773.983              0.830            -32.749
1815.334              0.824            -33.338
1857.616              0.818            -33.933
1901.016              0.812            -34.532
1945.160              0.806            -35.133
1990.609              0.800            -35.736
2036.989              0.794            -36.351
2084.300              0.787            -36.965
2132.915              0.780            -37.582
2182.648              0.774            -38.210
2233.498              0.767            -38.828
2285.466              0.760            -39.461
2338.737              0.753            -40.084
2393.126              0.746            -40.716
2448.820              0.738            -41.350
2506.003              0.731            -41.984
2564.304              0.723            -42.615
2624.094              0.716            -43.256
2685.189              0.708            -43.895
2747.774              0.700            -44.532
2811.663              0.692            -45.166
2877.228              0.684            -45.807
2944.283              0.676            -46.443
3012.829              0.668            -47.072
3083.050              0.660            -47.706
3154.762              0.652            -48.342
3228.337              0.643            -48.975
3303.401              0.635            -49.601
3380.328              0.627            -50.225
3459.118              0.618            -50.844
3539.771              0.610            -51.470
3622.100              0.601            -52.083
3706.478              0.593            -52.702
3792.904              0.584            -53.310
3881.194              0.576            -53.916
3971.718              0.567            -54.515
4064.105              0.559            -55.113
4158.728              0.550            -55.700
4255.772              0.542            -56.292
4354.864              0.533            -56.872
4456.192              0.525            -57.449
4560.128              0.516            -58.019
4666.299              0.508            -58.583
4774.891              0.499            -59.139
4886.277              0.491            -59.696
5000.085              0.483            -60.242
5116.500              0.475            -60.781
5235.709              0.467            -61.315
5357.526              0.458            -61.856
5482.323              0.450            -62.380
5610.101              0.443            -62.895
5740.859              0.435            -63.406
5874.410              0.427            -63.902
6011.315              0.419            -64.394
6151.386              0.411            -64.883
6294.623              0.404            -65.366
6441.213              0.396            -65.834
6591.342              0.389            -66.305
6744.824              0.382            -66.754
6901.845              0.374            -67.209
7062.778              0.367            -67.655
7227.249              0.360            -68.093
7395.633              0.353            -68.525
7567.741              0.346            -68.944
7744.133              0.340            -69.365
7924.438              0.333            -69.775
8109.026              0.326            -70.178
8297.898              0.320            -70.569
8491.240              0.314            -70.962
8689.053              0.307            -71.342
8891.337              0.301            -71.715
9098.463              0.295            -72.085
9310.432              0.289            -72.449
9527.244              0.283            -72.803
9749.271              0.277            -73.149
9976.327              0.272            -73.493
